
2 theta/deg	Intensity
   5.016711       449.0000    
   5.050134       417.0000    
   5.083556       428.0000    
   5.116979       437.0000    
   5.150402       412.0000    
   5.183824       447.0000    
   5.217247       396.0000    
   5.250669       389.0000    
   5.284091       402.0000    
   5.317514       430.0000    
   5.350936       405.0000    
   5.384359       407.0000    
   5.417782       405.0000    
   5.451204       449.0000    
   5.484627       438.0000    
   5.518049       415.0000    
   5.551472       410.0000    
   5.584894       390.0000    
   5.618317       451.0000    
   5.651740       393.0000    
   5.685162       429.0000    
   5.718585       415.0000    
   5.752007       421.0000    
   5.785429       417.0000    
   5.818852       402.0000    
   5.852275       414.0000    
   5.885697       420.0000    
   5.919120       380.0000    
   5.952542       393.0000    
   5.985965       430.0000    
   6.019387       400.0000    
   6.052810       385.0000    
   6.086232       374.0000    
   6.119655       363.0000    
   6.153078       384.0000    
   6.186500       399.0000    
   6.219923       403.0000    
   6.253345       423.0000    
   6.286767       384.0000    
   6.320190       366.0000    
   6.353613       368.0000    
   6.387035       378.0000    
   6.420458       398.0000    
   6.453880       413.0000    
   6.487303       424.0000    
   6.520725       411.0000    
   6.554148       386.0000    
   6.587570       398.0000    
   6.620993       399.0000    
   6.654416       395.0000    
   6.687838       392.0000    
   6.721261       393.0000    
   6.754683       400.0000    
   6.788106       399.0000    
   6.821528       390.0000    
   6.854951       382.0000    
   6.888373       410.0000    
   6.921796       418.0000    
   6.955218       365.0000    
   6.988641       405.0000    
   7.022063       394.0000    
   7.055486       363.0000    
   7.088908       392.0000    
   7.122331       395.0000    
   7.155754       377.0000    
   7.189176       429.0000    
   7.222599       369.0000    
   7.256021       346.0000    
   7.289444       353.0000    
   7.322866       402.0000    
   7.356289       397.0000    
   7.389711       397.0000    
   7.423134       376.0000    
   7.456556       386.0000    
   7.489979       387.0000    
   7.523401       360.0000    
   7.556824       405.0000    
   7.590247       407.0000    
   7.623669       357.0000    
   7.657092       397.0000    
   7.690514       367.0000    
   7.723937       392.0000    
   7.757360       369.0000    
   7.790782       391.0000    
   7.824204       407.0000    
   7.857627       431.0000    
   7.891049       442.0000    
   7.924472       402.0000    
   7.957894       416.0000    
   7.991317       424.0000    
   8.024739       417.0000    
   8.058163       430.0000    
   8.091585       428.0000    
   8.125008       397.0000    
   8.158430       382.0000    
   8.191853       396.0000    
   8.225275       397.0000    
   8.258698       376.0000    
   8.292120       380.0000    
   8.325542       443.0000    
   8.358965       402.0000    
   8.392387       396.0000    
   8.425810       391.0000    
   8.459232       403.0000    
   8.492655       399.0000    
   8.526077       389.0000    
   8.559500       401.0000    
   8.592922       399.0000    
   8.626345       402.0000    
   8.659768       431.0000    
   8.693191       425.0000    
   8.726613       396.0000    
   8.760036       396.0000    
   8.793458       406.0000    
   8.826880       364.0000    
   8.860303       446.0000    
   8.893725       396.0000    
   8.927148       410.0000    
   8.960570       398.0000    
   8.993993       399.0000    
   9.027416       414.0000    
   9.060839       399.0000    
   9.094261       422.0000    
   9.127684       394.0000    
   9.161106       395.0000    
   9.194529       387.0000    
   9.227951       437.0000    
   9.261374       372.0000    
   9.294796       375.0000    
   9.328218       385.0000    
   9.361641       448.0000    
   9.395063       431.0000    
   9.428486       398.0000    
   9.461908       420.0000    
   9.495331       402.0000    
   9.528753       382.0000    
   9.562176       411.0000    
   9.595598       421.0000    
   9.629021       394.0000    
   9.662444       445.0000    
   9.695867       406.0000    
   9.729289       379.0000    
   9.762712       404.0000    
   9.796134       411.0000    
   9.829556       425.0000    
   9.862979       414.0000    
   9.896402       394.0000    
   9.929825       421.0000    
   9.963247       422.0000    
   9.996670       401.0000    
   10.03009       404.0000    
   10.06351       413.0000    
   10.09694       399.0000    
   10.13036       399.0000    
   10.16378       418.0000    
   10.19720       406.0000    
   10.23063       433.0000    
   10.26405       402.0000    
   10.29747       434.0000    
   10.33089       429.0000    
   10.36432       396.0000    
   10.39774       426.0000    
   10.43116       412.0000    
   10.46458       428.0000    
   10.49801       401.0000    
   10.53143       399.0000    
   10.56485       399.0000    
   10.59827       432.0000    
   10.63170       444.0000    
   10.66512       431.0000    
   10.69854       414.0000    
   10.73197       388.0000    
   10.76539       425.0000    
   10.79881       452.0000    
   10.83223       419.0000    
   10.86566       452.0000    
   10.89908       403.0000    
   10.93250       412.0000    
   10.96592       426.0000    
   10.99935       394.0000    
   11.03277       406.0000    
   11.06619       430.0000    
   11.09961       422.0000    
   11.13304       452.0000    
   11.16646       482.0000    
   11.19988       468.0000    
   11.23330       416.0000    
   11.26673       423.0000    
   11.30015       460.0000    
   11.33357       477.0000    
   11.36699       423.0000    
   11.40042       417.0000    
   11.43384       461.0000    
   11.46726       485.0000    
   11.50068       440.0000    
   11.53411       418.0000    
   11.56753       466.0000    
   11.60095       414.0000    
   11.63437       484.0000    
   11.66780       463.0000    
   11.70122       457.0000    
   11.73464       412.0000    
   11.76806       440.0000    
   11.80149       449.0000    
   11.83491       473.0000    
   11.86833       431.0000    
   11.90175       475.0000    
   11.93518       445.0000    
   11.96860       473.0000    
   12.00202       481.0000    
   12.03544       473.0000    
   12.06887       427.0000    
   12.10229       461.0000    
   12.13571       436.0000    
   12.16913       442.0000    
   12.20256       411.0000    
   12.23598       436.0000    
   12.26940       473.0000    
   12.30282       500.0000    
   12.33625       425.0000    
   12.36967       454.0000    
   12.40309       440.0000    
   12.43651       450.0000    
   12.46994       437.0000    
   12.50336       431.0000    
   12.53678       441.0000    
   12.57020       475.0000    
   12.60363       452.0000    
   12.63705       440.0000    
   12.67047       450.0000    
   12.70389       425.0000    
   12.73732       445.0000    
   12.77074       445.0000    
   12.80416       458.0000    
   12.83759       485.0000    
   12.87101       441.0000    
   12.90443       486.0000    
   12.93785       470.0000    
   12.97128       443.0000    
   13.00470       468.0000    
   13.03812       443.0000    
   13.07154       426.0000    
   13.10497       492.0000    
   13.13839       443.0000    
   13.17181       515.0000    
   13.20523       482.0000    
   13.23866       464.0000    
   13.27208       466.0000    
   13.30550       450.0000    
   13.33892       433.0000    
   13.37235       466.0000    
   13.40577       464.0000    
   13.43919       468.0000    
   13.47261       464.0000    
   13.50604       441.0000    
   13.53946       450.0000    
   13.57288       455.0000    
   13.60630       422.0000    
   13.63973       451.0000    
   13.67315       439.0000    
   13.70657       449.0000    
   13.73999       478.0000    
   13.77342       433.0000    
   13.80684       404.0000    
   13.84026       500.0000    
   13.87368       449.0000    
   13.90711       418.0000    
   13.94053       487.0000    
   13.97395       459.0000    
   14.00737       457.0000    
   14.04080       438.0000    
   14.07422       434.0000    
   14.10764       463.0000    
   14.14106       425.0000    
   14.17449       449.0000    
   14.20791       459.0000    
   14.24133       441.0000    
   14.27475       450.0000    
   14.30818       446.0000    
   14.34160       473.0000    
   14.37502       444.0000    
   14.40844       487.0000    
   14.44187       430.0000    
   14.47529       448.0000    
   14.50871       423.0000    
   14.54213       488.0000    
   14.57556       431.0000    
   14.60898       429.0000    
   14.64240       448.0000    
   14.67582       428.0000    
   14.70925       451.0000    
   14.74267       442.0000    
   14.77609       418.0000    
   14.80951       446.0000    
   14.84294       456.0000    
   14.87636       465.0000    
   14.90978       399.0000    
   14.94320       447.0000    
   14.97663       439.0000    
   15.01005       460.0000    
   15.04347       452.0000    
   15.07689       457.0000    
   15.11032       439.0000    
   15.14374       465.0000    
   15.17716       411.0000    
   15.21058       449.0000    
   15.24401       471.0000    
   15.27743       457.0000    
   15.31085       406.0000    
   15.34428       451.0000    
   15.37770       449.0000    
   15.41112       427.0000    
   15.44454       436.0000    
   15.47797       444.0000    
   15.51139       447.0000    
   15.54481       460.0000    
   15.57823       461.0000    
   15.61166       487.0000    
   15.64508       464.0000    
   15.67850       471.0000    
   15.71192       442.0000    
   15.74535       425.0000    
   15.77877       419.0000    
   15.81219       443.0000    
   15.84561       440.0000    
   15.87904       456.0000    
   15.91246       470.0000    
   15.94588       451.0000    
   15.97930       468.0000    
   16.01273       419.0000    
   16.04615       470.0000    
   16.07957       433.0000    
   16.11299       445.0000    
   16.14642       481.0000    
   16.17984       418.0000    
   16.21326       436.0000    
   16.24669       472.0000    
   16.28011       459.0000    
   16.31353       483.0000    
   16.34695       433.0000    
   16.38037       412.0000    
   16.41380       477.0000    
   16.44722       478.0000    
   16.48064       457.0000    
   16.51406       446.0000    
   16.54749       431.0000    
   16.58091       444.0000    
   16.61433       454.0000    
   16.64775       436.0000    
   16.68118       427.0000    
   16.71460       421.0000    
   16.74802       457.0000    
   16.78144       406.0000    
   16.81487       460.0000    
   16.84829       460.0000    
   16.88171       493.0000    
   16.91513       481.0000    
   16.94856       429.0000    
   16.98198       458.0000    
   17.01540       456.0000    
   17.04882       461.0000    
   17.08225       473.0000    
   17.11567       459.0000    
   17.14909       472.0000    
   17.18251       432.0000    
   17.21594       459.0000    
   17.24936       478.0000    
   17.28278       471.0000    
   17.31620       454.0000    
   17.34963       410.0000    
   17.38305       440.0000    
   17.41647       477.0000    
   17.44989       484.0000    
   17.48332       472.0000    
   17.51674       447.0000    
   17.55016       432.0000    
   17.58358       422.0000    
   17.61701       474.0000    
   17.65043       416.0000    
   17.68385       473.0000    
   17.71728       428.0000    
   17.75070       461.0000    
   17.78412       450.0000    
   17.81754       463.0000    
   17.85097       440.0000    
   17.88439       432.0000    
   17.91781       442.0000    
   17.95123       430.0000    
   17.98466       448.0000    
   18.01808       416.0000    
   18.05150       434.0000    
   18.08492       466.0000    
   18.11835       463.0000    
   18.15177       389.0000    
   18.18519       410.0000    
   18.21861       427.0000    
   18.25204       437.0000    
   18.28546       477.0000    
   18.31888       465.0000    
   18.35230       476.0000    
   18.38573       426.0000    
   18.41915       422.0000    
   18.45257       468.0000    
   18.48599       434.0000    
   18.51942       470.0000    
   18.55284       464.0000    
   18.58626       463.0000    
   18.61968       452.0000    
   18.65311       463.0000    
   18.68653       469.0000    
   18.71995       451.0000    
   18.75337       447.0000    
   18.78680       466.0000    
   18.82022       436.0000    
   18.85364       474.0000    
   18.88706       427.0000    
   18.92049       469.0000    
   18.95391       464.0000    
   18.98733       431.0000    
   19.02075       483.0000    
   19.05418       423.0000    
   19.08760       487.0000    
   19.12102       468.0000    
   19.15445       442.0000    
   19.18787       437.0000    
   19.22129       464.0000    
   19.25471       427.0000    
   19.28814       451.0000    
   19.32156       456.0000    
   19.35498       456.0000    
   19.38840       451.0000    
   19.42183       421.0000    
   19.45525       443.0000    
   19.48867       454.0000    
   19.52209       455.0000    
   19.55552       464.0000    
   19.58894       446.0000    
   19.62236       447.0000    
   19.65578       405.0000    
   19.68921       472.0000    
   19.72263       445.0000    
   19.75605       443.0000    
   19.78947       426.0000    
   19.82290       443.0000    
   19.85632       398.0000    
   19.88974       456.0000    
   19.92316       394.0000    
   19.95658       410.0000    
   19.99001       446.0000    
   20.02343       445.0000    
   20.05685       475.0000    
   20.09027       409.0000    
   20.12370       483.0000    
   20.15712       441.0000    
   20.19054       439.0000    
   20.22396       467.0000    
   20.25739       449.0000    
   20.29081       447.0000    
   20.32423       449.0000    
   20.35765       405.0000    
   20.39108       449.0000    
   20.42450       457.0000    
   20.45792       463.0000    
   20.49135       439.0000    
   20.52477       447.0000    
   20.55819       405.0000    
   20.59161       444.0000    
   20.62504       459.0000    
   20.65846       415.0000    
   20.69188       433.0000    
   20.72530       445.0000    
   20.75873       466.0000    
   20.79215       445.0000    
   20.82557       431.0000    
   20.85899       444.0000    
   20.89242       430.0000    
   20.92584       458.0000    
   20.95926       424.0000    
   20.99268       423.0000    
   21.02611       426.0000    
   21.05953       456.0000    
   21.09295       439.0000    
   21.12637       454.0000    
   21.15980       456.0000    
   21.19322       415.0000    
   21.22664       415.0000    
   21.26006       399.0000    
   21.29349       390.0000    
   21.32691       437.0000    
   21.36033       443.0000    
   21.39375       421.0000    
   21.42718       443.0000    
   21.46060       424.0000    
   21.49402       458.0000    
   21.52744       427.0000    
   21.56087       404.0000    
   21.59429       453.0000    
   21.62771       416.0000    
   21.66114       439.0000    
   21.69456       424.0000    
   21.72798       474.0000    
   21.76140       446.0000    
   21.79483       422.0000    
   21.82825       439.0000    
   21.86167       415.0000    
   21.89509       394.0000    
   21.92852       424.0000    
   21.96194       429.0000    
   21.99536       450.0000    
   22.02878       449.0000    
   22.06221       442.0000    
   22.09563       437.0000    
   22.12905       410.0000    
   22.16247       428.0000    
   22.19590       441.0000    
   22.22932       447.0000    
   22.26274       459.0000    
   22.29616       422.0000    
   22.32959       422.0000    
   22.36301       464.0000    
   22.39643       409.0000    
   22.42985       477.0000    
   22.46328       442.0000    
   22.49670       449.0000    
   22.53012       473.0000    
   22.56354       437.0000    
   22.59697       437.0000    
   22.63039       441.0000    
   22.66381       417.0000    
   22.69724       459.0000    
   22.73066       409.0000    
   22.76408       440.0000    
   22.79750       433.0000    
   22.83092       446.0000    
   22.86435       414.0000    
   22.89777       469.0000    
   22.93119       404.0000    
   22.96461       414.0000    
   22.99804       417.0000    
   23.03146       416.0000    
   23.06488       437.0000    
   23.09830       443.0000    
   23.13173       438.0000    
   23.16515       410.0000    
   23.19857       432.0000    
   23.23199       403.0000    
   23.26542       428.0000    
   23.29884       446.0000    
   23.33226       420.0000    
   23.36568       405.0000    
   23.39911       403.0000    
   23.43253       433.0000    
   23.46595       422.0000    
   23.49937       479.0000    
   23.53279       444.0000    
   23.56622       438.0000    
   23.59964       456.0000    
   23.63306       421.0000    
   23.66649       436.0000    
   23.69991       394.0000    
   23.73333       437.0000    
   23.76675       451.0000    
   23.80018       445.0000    
   23.83360       420.0000    
   23.86702       458.0000    
   23.90044       427.0000    
   23.93387       480.0000    
   23.96729       446.0000    
   24.00071       437.0000    
   24.03413       430.0000    
   24.06756       445.0000    
   24.10098       433.0000    
   24.13440       448.0000    
   24.16782       441.0000    
   24.20125       406.0000    
   24.23467       454.0000    
   24.26809       442.0000    
   24.30151       437.0000    
   24.33494       427.0000    
   24.36836       467.0000    
   24.40178       461.0000    
   24.43520       443.0000    
   24.46863       451.0000    
   24.50205       449.0000    
   24.53547       453.0000    
   24.56890       418.0000    
   24.60232       446.0000    
   24.63574       425.0000    
   24.66916       425.0000    
   24.70259       421.0000    
   24.73601       466.0000    
   24.76943       436.0000    
   24.80285       440.0000    
   24.83628       432.0000    
   24.86970       443.0000    
   24.90312       424.0000    
   24.93654       411.0000    
   24.96997       424.0000    
   25.00339       414.0000    
   25.03681       437.0000    
   25.07023       422.0000    
   25.10366       427.0000    
   25.13708       444.0000    
   25.17050       418.0000    
   25.20392       468.0000    
   25.23735       422.0000    
   25.27077       404.0000    
   25.30419       400.0000    
   25.33761       455.0000    
   25.37104       432.0000    
   25.40446       454.0000    
   25.43788       443.0000    
   25.47131       437.0000    
   25.50473       465.0000    
   25.53815       455.0000    
   25.57157       388.0000    
   25.60500       399.0000    
   25.63842       409.0000    
   25.67184       406.0000    
   25.70526       426.0000    
   25.73869       428.0000    
   25.77211       421.0000    
   25.80553       452.0000    
   25.83895       456.0000    
   25.87238       430.0000    
   25.90580       424.0000    
   25.93922       446.0000    
   25.97264       399.0000    
   26.00607       427.0000    
   26.03949       448.0000    
   26.07291       434.0000    
   26.10633       413.0000    
   26.13976       425.0000    
   26.17318       428.0000    
   26.20660       398.0000    
   26.24002       449.0000    
   26.27345       447.0000    
   26.30687       464.0000    
   26.34029       439.0000    
   26.37371       419.0000    
   26.40714       445.0000    
   26.44056       470.0000    
   26.47398       482.0000    
   26.50740       387.0000    
   26.54082       423.0000    
   26.57425       439.0000    
   26.60767       405.0000    
   26.64109       410.0000    
   26.67451       445.0000    
   26.70794       432.0000    
   26.74136       438.0000    
   26.77478       449.0000    
   26.80820       463.0000    
   26.84163       483.0000    
   26.87505       404.0000    
   26.90847       461.0000    
   26.94189       404.0000    
   26.97532       428.0000    
   27.00874       424.0000    
   27.04216       447.0000    
   27.07558       416.0000    
   27.10901       431.0000    
   27.14243       428.0000    
   27.17585       439.0000    
   27.20927       422.0000    
   27.24270       434.0000    
   27.27612       422.0000    
   27.30954       426.0000    
   27.34296       425.0000    
   27.37639       452.0000    
   27.40981       443.0000    
   27.44323       473.0000    
   27.47666       465.0000    
   27.51008       416.0000    
   27.54350       420.0000    
   27.57692       473.0000    
   27.61035       407.0000    
   27.64377       444.0000    
   27.67719       423.0000    
   27.71061       439.0000    
   27.74404       443.0000    
   27.77746       431.0000    
   27.81088       414.0000    
   27.84430       416.0000    
   27.87773       410.0000    
   27.91115       425.0000    
   27.94457       443.0000    
   27.97799       444.0000    
   28.01142       404.0000    
   28.04484       419.0000    
   28.07826       440.0000    
   28.11168       503.0000    
   28.14511       433.0000    
   28.17853       472.0000    
   28.21195       460.0000    
   28.24537       451.0000    
   28.27880       424.0000    
   28.31222       434.0000    
   28.34564       429.0000    
   28.37907       391.0000    
   28.41249       450.0000    
   28.44591       436.0000    
   28.47933       437.0000    
   28.51276       445.0000    
   28.54618       475.0000    
   28.57960       399.0000    
   28.61302       444.0000    
   28.64645       437.0000    
   28.67987       419.0000    
   28.71329       423.0000    
   28.74671       447.0000    
   28.78014       459.0000    
   28.81356       410.0000    
   28.84698       439.0000    
   28.88040       465.0000    
   28.91383       442.0000    
   28.94725       415.0000    
   28.98067       444.0000    
   29.01409       482.0000    
   29.04752       432.0000    
   29.08094       448.0000    
   29.11436       451.0000    
   29.14778       401.0000    
   29.18121       449.0000    
   29.21463       449.0000    
   29.24805       486.0000    
   29.28148       461.0000    
   29.31490       437.0000    
   29.34832       418.0000    
   29.38174       440.0000    
   29.41516       466.0000    
   29.44859       436.0000    
   29.48201       407.0000    
   29.51543       451.0000    
   29.54885       436.0000    
   29.58228       428.0000    
   29.61570       491.0000    
   29.64912       429.0000    
   29.68254       416.0000    
   29.71597       439.0000    
   29.74939       418.0000    
   29.78281       459.0000    
   29.81623       458.0000    
   29.84966       487.0000    
   29.88308       482.0000    
   29.91650       469.0000    
   29.94992       436.0000    
   29.98335       450.0000    
   30.01677       443.0000    
   30.05019       463.0000    
   30.08361       467.0000    
   30.11703       458.0000    
   30.15046       449.0000    
   30.18388       455.0000    
   30.21730       458.0000    
   30.25073       455.0000    
   30.28415       421.0000    
   30.31757       418.0000    
   30.35099       484.0000    
   30.38442       464.0000    
   30.41784       451.0000    
   30.45126       453.0000    
   30.48468       485.0000    
   30.51811       502.0000    
   30.55153       465.0000    
   30.58495       488.0000    
   30.61837       481.0000    
   30.65180       461.0000    
   30.68522       467.0000    
   30.71864       477.0000    
   30.75206       460.0000    
   30.78549       461.0000    
   30.81891       477.0000    
   30.85233       432.0000    
   30.88575       453.0000    
   30.91918       484.0000    
   30.95260       447.0000    
   30.98602       459.0000    
   31.01944       453.0000    
   31.05287       449.0000    
   31.08629       454.0000    
   31.11971       465.0000    
   31.15313       467.0000    
   31.18656       455.0000    
   31.21998       499.0000    
   31.25340       509.0000    
   31.28683       442.0000    
   31.32025       497.0000    
   31.35367       499.0000    
   31.38709       477.0000    
   31.42052       459.0000    
   31.45394       469.0000    
   31.48736       476.0000    
   31.52078       444.0000    
   31.55421       470.0000    
   31.58763       489.0000    
   31.62105       470.0000    
   31.65447       499.0000    
   31.68790       477.0000    
   31.72132       476.0000    
   31.75474       474.0000    
   31.78816       532.0000    
   31.82159       481.0000    
   31.85501       466.0000    
   31.88843       453.0000    
   31.92185       477.0000    
   31.95528       486.0000    
   31.98870       496.0000    
   32.02212       482.0000    
   32.05554       532.0000    
   32.08897       511.0000    
   32.12239       453.0000    
   32.15581       470.0000    
   32.18924       493.0000    
   32.22266       494.0000    
   32.25608       524.0000    
   32.28950       478.0000    
   32.32293       504.0000    
   32.35635       528.0000    
   32.38977       518.0000    
   32.42319       476.0000    
   32.45662       487.0000    
   32.49004       539.0000    
   32.52346       487.0000    
   32.55688       492.0000    
   32.59031       474.0000    
   32.62373       482.0000    
   32.65715       480.0000    
   32.69057       529.0000    
   32.72400       458.0000    
   32.75742       528.0000    
   32.79084       506.0000    
   32.82426       524.0000    
   32.85769       496.0000    
   32.89111       504.0000    
   32.92453       503.0000    
   32.95795       519.0000    
   32.99137       550.0000    
   33.02480       584.0000    
   33.05822       523.0000    
   33.09164       499.0000    
   33.12506       521.0000    
   33.15849       535.0000    
   33.19191       563.0000    
   33.22533       536.0000    
   33.25875       545.0000    
   33.29218       505.0000    
   33.32560       529.0000    
   33.35902       525.0000    
   33.39244       538.0000    
   33.42587       549.0000    
   33.45929       545.0000    
   33.49271       563.0000    
   33.52613       521.0000    
   33.55956       532.0000    
   33.59298       542.0000    
   33.62640       550.0000    
   33.65982       531.0000    
   33.69325       519.0000    
   33.72667       528.0000    
   33.76009       549.0000    
   33.79351       585.0000    
   33.82694       538.0000    
   33.86036       547.0000    
   33.89378       516.0000    
   33.92720       562.0000    
   33.96063       587.0000    
   33.99405       565.0000    
   34.02747       563.0000    
   34.06090       559.0000    
   34.09432       587.0000    
   34.12774       569.0000    
   34.16116       551.0000    
   34.19459       589.0000    
   34.22801       586.0000    
   34.26143       591.0000    
   34.29485       583.0000    
   34.32828       583.0000    
   34.36170       577.0000    
   34.39512       607.0000    
   34.42854       585.0000    
   34.46197       601.0000    
   34.49539       616.0000    
   34.52881       578.0000    
   34.56223       607.0000    
   34.59566       581.0000    
   34.62908       576.0000    
   34.66250       590.0000    
   34.69592       589.0000    
   34.72935       643.0000    
   34.76277       660.0000    
   34.79619       620.0000    
   34.82961       629.0000    
   34.86304       622.0000    
   34.89646       659.0000    
   34.92988       615.0000    
   34.96331       647.0000    
   34.99673       621.0000    
   35.03015       606.0000    
   35.06357       648.0000    
   35.09700       671.0000    
   35.13042       652.0000    
   35.16384       686.0000    
   35.19726       665.0000    
   35.23069       635.0000    
   35.26411       640.0000    
   35.29753       611.0000    
   35.33095       655.0000    
   35.36438       663.0000    
   35.39780       645.0000    
   35.43122       660.0000    
   35.46464       718.0000    
   35.49807       704.0000    
   35.53149       706.0000    
   35.56491       695.0000    
   35.59833       744.0000    
   35.63176       755.0000    
   35.66518       794.0000    
   35.69860       755.0000    
   35.73202       775.0000    
   35.76545       781.0000    
   35.79887       784.0000    
   35.83229       878.0000    
   35.86571       865.0000    
   35.89914       950.0000    
   35.93256       909.0000    
   35.96598       931.0000    
   35.99940       947.0000    
   36.03283       1028.000    
   36.06625       1023.000    
   36.09967       1040.000    
   36.13309       1083.000    
   36.16652       1111.000    
   36.19994       1172.000    
   36.23336       1313.000    
   36.26678       1360.000    
   36.30021       1427.000    
   36.33363       1527.000    
   36.36705       1670.000    
   36.40047       1866.000    
   36.43390       1902.000    
   36.46732       2063.000    
   36.50074       2394.000    
   36.53416       2508.000    
   36.56758       2778.000    
   36.60101       2957.000    
   36.63443       3347.000    
   36.66785       3706.000    
   36.70127       3985.000    
   36.73470       4327.000    
   36.76812       4560.000    
   36.80154       5000.000    
   36.83496       5361.000    
   36.86839       5584.000    
   36.90181       5649.000    
   36.93523       5953.000    
   36.96866       6132.000    
   37.00208       6080.000    
   37.03550       6235.000    
   37.06892       6056.000    
   37.10235       5984.000    
   37.13577       5701.000    
   37.16919       5549.000    
   37.20261       5332.000    
   37.23604       4913.000    
   37.26946       4669.000    
   37.30288       4359.000    
   37.33630       3908.000    
   37.36973       3441.000    
   37.40315       3323.000    
   37.43657       3018.000    
   37.47000       2624.000    
   37.50342       2456.000    
   37.53684       2281.000    
   37.57026       2112.000    
   37.60369       1977.000    
   37.63711       1765.000    
   37.67053       1656.000    
   37.70395       1512.000    
   37.73738       1472.000    
   37.77080       1326.000    
   37.80422       1273.000    
   37.83764       1186.000    
   37.87107       1138.000    
   37.90449       1117.000    
   37.93791       1136.000    
   37.97133       1059.000    
   38.00476       994.0000    
   38.03818       952.0000    
   38.07160       959.0000    
   38.10502       902.0000    
   38.13845       906.0000    
   38.17187       811.0000    
   38.20529       887.0000    
   38.23871       805.0000    
   38.27214       822.0000    
   38.30556       830.0000    
   38.33898       806.0000    
   38.37241       752.0000    
   38.40583       795.0000    
   38.43925       761.0000    
   38.47267       752.0000    
   38.50610       793.0000    
   38.53952       756.0000    
   38.57294       706.0000    
   38.60636       747.0000    
   38.63979       685.0000    
   38.67321       755.0000    
   38.70663       724.0000    
   38.74005       736.0000    
   38.77348       714.0000    
   38.80690       727.0000    
   38.84032       660.0000    
   38.87374       677.0000    
   38.90717       661.0000    
   38.94059       711.0000    
   38.97401       693.0000    
   39.00743       640.0000    
   39.04086       662.0000    
   39.07428       668.0000    
   39.10770       690.0000    
   39.14112       721.0000    
   39.17455       622.0000    
   39.20797       650.0000    
   39.24139       606.0000    
   39.27481       601.0000    
   39.30824       634.0000    
   39.34166       631.0000    
   39.37508       590.0000    
   39.40850       650.0000    
   39.44193       630.0000    
   39.47535       630.0000    
   39.50877       619.0000    
   39.54219       656.0000    
   39.57561       636.0000    
   39.60904       582.0000    
   39.64246       592.0000    
   39.67588       635.0000    
   39.70930       619.0000    
   39.74273       612.0000    
   39.77615       610.0000    
   39.80957       578.0000    
   39.84299       623.0000    
   39.87642       630.0000    
   39.90984       652.0000    
   39.94326       627.0000    
   39.97668       609.0000    
   40.01011       627.0000    
   40.04353       606.0000    
   40.07695       574.0000    
   40.11037       616.0000    
   40.14380       609.0000    
   40.17722       615.0000    
   40.21064       570.0000    
   40.24407       630.0000    
   40.27749       647.0000    
   40.31091       583.0000    
   40.34433       603.0000    
   40.37776       639.0000    
   40.41118       608.0000    
   40.44460       575.0000    
   40.47802       577.0000    
   40.51145       561.0000    
   40.54487       568.0000    
   40.57829       587.0000    
   40.61171       522.0000    
   40.64514       583.0000    
   40.67856       576.0000    
   40.71198       579.0000    
   40.74540       593.0000    
   40.77883       577.0000    
   40.81225       578.0000    
   40.84567       543.0000    
   40.87909       588.0000    
   40.91252       572.0000    
   40.94594       568.0000    
   40.97936       585.0000    
   41.01278       555.0000    
   41.04621       562.0000    
   41.07963       606.0000    
   41.11305       546.0000    
   41.14648       555.0000    
   41.17990       598.0000    
   41.21332       578.0000    
   41.24674       556.0000    
   41.28017       584.0000    
   41.31359       523.0000    
   41.34701       515.0000    
   41.38043       545.0000    
   41.41386       565.0000    
   41.44728       531.0000    
   41.48070       568.0000    
   41.51412       552.0000    
   41.54755       523.0000    
   41.58097       467.0000    
   41.61439       531.0000    
   41.64781       609.0000    
   41.68124       543.0000    
   41.71466       548.0000    
   41.74808       568.0000    
   41.78150       569.0000    
   41.81493       528.0000    
   41.84835       548.0000    
   41.88177       570.0000    
   41.91519       527.0000    
   41.94862       583.0000    
   41.98204       557.0000    
   42.01546       545.0000    
   42.04888       536.0000    
   42.08231       516.0000    
   42.11573       497.0000    
   42.14915       498.0000    
   42.18258       520.0000    
   42.21600       555.0000    
   42.24942       519.0000    
   42.28284       534.0000    
   42.31627       523.0000    
   42.34969       554.0000    
   42.38311       525.0000    
   42.41653       552.0000    
   42.44995       501.0000    
   42.48338       510.0000    
   42.51680       493.0000    
   42.55022       505.0000    
   42.58364       487.0000    
   42.61707       500.0000    
   42.65049       523.0000    
   42.68391       504.0000    
   42.71733       498.0000    
   42.75076       492.0000    
   42.78418       477.0000    
   42.81760       512.0000    
   42.85102       507.0000    
   42.88445       549.0000    
   42.91787       477.0000    
   42.95129       523.0000    
   42.98471       551.0000    
   43.01814       557.0000    
   43.05156       528.0000    
   43.08498       530.0000    
   43.11840       556.0000    
   43.15183       508.0000    
   43.18525       507.0000    
   43.21867       506.0000    
   43.25209       503.0000    
   43.28552       524.0000    
   43.31894       514.0000    
   43.35236       491.0000    
   43.38578       493.0000    
   43.41921       518.0000    
   43.45263       500.0000    
   43.48605       467.0000    
   43.51947       483.0000    
   43.55290       515.0000    
   43.58632       521.0000    
   43.61974       465.0000    
   43.65316       495.0000    
   43.68659       496.0000    
   43.72001       548.0000    
   43.75343       494.0000    
   43.78685       484.0000    
   43.82028       527.0000    
   43.85370       479.0000    
   43.88712       482.0000    
   43.92054       507.0000    
   43.95397       513.0000    
   43.98739       477.0000    
   44.02081       498.0000    
   44.05424       514.0000    
   44.08766       482.0000    
   44.12108       549.0000    
   44.15450       475.0000    
   44.18793       481.0000    
   44.22135       459.0000    
   44.25477       543.0000    
   44.28819       518.0000    
   44.32162       495.0000    
   44.35504       477.0000    
   44.38846       511.0000    
   44.42188       513.0000    
   44.45531       493.0000    
   44.48873       465.0000    
   44.52215       477.0000    
   44.55557       500.0000    
   44.58900       532.0000    
   44.62242       449.0000    
   44.65584       528.0000    
   44.68926       502.0000    
   44.72269       478.0000    
   44.75611       496.0000    
   44.78953       507.0000    
   44.82295       514.0000    
   44.85638       523.0000    
   44.88980       526.0000    
   44.92322       497.0000    
   44.95665       500.0000    
   44.99007       516.0000    
   45.02349       466.0000    
   45.05691       493.0000    
   45.09034       473.0000    
   45.12376       463.0000    
   45.15718       461.0000    
   45.19060       500.0000    
   45.22403       495.0000    
   45.25745       523.0000    
   45.29087       531.0000    
   45.32429       479.0000    
   45.35772       457.0000    
   45.39114       503.0000    
   45.42456       509.0000    
   45.45798       495.0000    
   45.49141       508.0000    
   45.52483       447.0000    
   45.55825       499.0000    
   45.59167       473.0000    
   45.62510       438.0000    
   45.65852       447.0000    
   45.69194       461.0000    
   45.72536       474.0000    
   45.75879       480.0000    
   45.79221       464.0000    
   45.82563       499.0000    
   45.85905       534.0000    
   45.89248       521.0000    
   45.92590       453.0000    
   45.95932       503.0000    
   45.99274       486.0000    
   46.02617       497.0000    
   46.05959       449.0000    
   46.09301       497.0000    
   46.12643       486.0000    
   46.15985       504.0000    
   46.19328       479.0000    
   46.22670       477.0000    
   46.26012       494.0000    
   46.29354       497.0000    
   46.32697       464.0000    
   46.36039       499.0000    
   46.39381       483.0000    
   46.42723       496.0000    
   46.46066       460.0000    
   46.49408       495.0000    
   46.52750       492.0000    
   46.56092       452.0000    
   46.59435       484.0000    
   46.62777       528.0000    
   46.66119       450.0000    
   46.69461       482.0000    
   46.72804       483.0000    
   46.76146       497.0000    
   46.79488       438.0000    
   46.82830       479.0000    
   46.86173       522.0000    
   46.89515       461.0000    
   46.92857       496.0000    
   46.96200       507.0000    
   46.99542       472.0000    
   47.02884       485.0000    
   47.06226       499.0000    
   47.09569       491.0000    
   47.12911       509.0000    
   47.16253       526.0000    
   47.19595       537.0000    
   47.22938       515.0000    
   47.26280       515.0000    
   47.29622       477.0000    
   47.32964       493.0000    
   47.36307       488.0000    
   47.39649       516.0000    
   47.42991       506.0000    
   47.46333       529.0000    
   47.49676       507.0000    
   47.53018       493.0000    
   47.56360       573.0000    
   47.59702       519.0000    
   47.63045       521.0000    
   47.66387       521.0000    
   47.69729       526.0000    
   47.73071       492.0000    
   47.76414       512.0000    
   47.79756       528.0000    
   47.83098       516.0000    
   47.86441       513.0000    
   47.89783       507.0000    
   47.93125       473.0000    
   47.96467       572.0000    
   47.99810       500.0000    
   48.03152       486.0000    
   48.06494       512.0000    
   48.09836       514.0000    
   48.13179       506.0000    
   48.16521       509.0000    
   48.19863       487.0000    
   48.23205       472.0000    
   48.26548       510.0000    
   48.29890       505.0000    
   48.33232       510.0000    
   48.36574       481.0000    
   48.39917       438.0000    
   48.43259       471.0000    
   48.46601       445.0000    
   48.49943       547.0000    
   48.53286       442.0000    
   48.56628       493.0000    
   48.59970       498.0000    
   48.63312       464.0000    
   48.66655       511.0000    
   48.69997       528.0000    
   48.73339       475.0000    
   48.76682       509.0000    
   48.80024       482.0000    
   48.83366       493.0000    
   48.86708       502.0000    
   48.90051       523.0000    
   48.93393       492.0000    
   48.96735       510.0000    
   49.00077       467.0000    
   49.03419       486.0000    
   49.06762       525.0000    
   49.10104       527.0000    
   49.13446       484.0000    
   49.16788       511.0000    
   49.20131       540.0000    
   49.23473       500.0000    
   49.26815       473.0000    
   49.30157       506.0000    
   49.33500       506.0000    
   49.36842       509.0000    
   49.40184       540.0000    
   49.43526       501.0000    
   49.46869       503.0000    
   49.50211       526.0000    
   49.53553       439.0000    
   49.56895       511.0000    
   49.60238       461.0000    
   49.63580       552.0000    
   49.66922       499.0000    
   49.70264       460.0000    
   49.73607       477.0000    
   49.76949       501.0000    
   49.80291       520.0000    
   49.83633       520.0000    
   49.86976       512.0000    
   49.90318       542.0000    
   49.93660       463.0000    
   49.97002       523.0000    
   50.00345       481.0000    
   50.03687       498.0000    
   50.07029       543.0000    
   50.10371       565.0000    
   50.13714       501.0000    
   50.17056       600.0000    
   50.20398       535.0000    
   50.23740       558.0000    
   50.27083       560.0000    
   50.30425       506.0000    
   50.33767       533.0000    
   50.37109       548.0000    
   50.40452       548.0000    
   50.43794       559.0000    
   50.47136       553.0000    
   50.50478       600.0000    
   50.53821       547.0000    
   50.57163       589.0000    
   50.60505       565.0000    
   50.63847       550.0000    
   50.67190       568.0000    
   50.70532       595.0000    
   50.73874       587.0000    
   50.77217       635.0000    
   50.80559       613.0000    
   50.83901       596.0000    
   50.87243       656.0000    
   50.90586       616.0000    
   50.93928       624.0000    
   50.97270       622.0000    
   51.00612       631.0000    
   51.03955       624.0000    
   51.07297       666.0000    
   51.10639       637.0000    
   51.13981       707.0000    
   51.17324       709.0000    
   51.20666       648.0000    
   51.24008       772.0000    
   51.27350       722.0000    
   51.30693       755.0000    
   51.34035       753.0000    
   51.37377       793.0000    
   51.40719       803.0000    
   51.44062       760.0000    
   51.47404       806.0000    
   51.50746       853.0000    
   51.54088       863.0000    
   51.57431       908.0000    
   51.60773       848.0000    
   51.64115       832.0000    
   51.67458       964.0000    
   51.70800       1006.000    
   51.74142       1029.000    
   51.77484       1066.000    
   51.80827       1104.000    
   51.84169       1145.000    
   51.87511       1122.000    
   51.90853       1151.000    
   51.94196       1259.000    
   51.97538       1338.000    
   52.00880       1386.000    
   52.04222       1430.000    
   52.07565       1563.000    
   52.10907       1714.000    
   52.14249       1754.000    
   52.17591       1965.000    
   52.20934       1952.000    
   52.24276       1974.000    
   52.27618       2289.000    
   52.30960       2387.000    
   52.34303       2660.000    
   52.37645       2704.000    
   52.40987       2880.000    
   52.44329       3284.000    
   52.47672       3504.000    
   52.51014       3810.000    
   52.54356       4162.000    
   52.57698       4414.000    
   52.61040       4751.000    
   52.64383       5112.000    
   52.67725       5589.000    
   52.71067       5987.000    
   52.74409       6396.000    
   52.77752       6889.000    
   52.81094       7169.000    
   52.84436       7673.000    
   52.87778       8094.000    
   52.91121       8588.000    
   52.94463       8853.000    
   52.97805       9352.000    
   53.01147       9635.000    
   53.04490       9896.000    
   53.07832       10168.00    
   53.11174       10347.00    
   53.14516       10700.00    
   53.17859       10793.00    
   53.21201       10925.00    
   53.24543       10886.00    
   53.27885       10630.00    
   53.31228       10432.00    
   53.34570       10198.00    
   53.37912       9833.000    
   53.41254       9775.000    
   53.44597       9244.000    
   53.47939       8830.000    
   53.51281       8246.000    
   53.54624       7980.000    
   53.57966       7313.000    
   53.61308       6683.000    
   53.64650       6233.000    
   53.67993       5751.000    
   53.71335       5300.000    
   53.74677       4934.000    
   53.78019       4514.000    
   53.81362       4040.000    
   53.84704       3675.000    
   53.88046       3321.000    
   53.91388       3038.000    
   53.94731       2836.000    
   53.98073       2600.000    
   54.01415       2380.000    
   54.04757       2229.000    
   54.08100       2010.000    
   54.11442       1904.000    
   54.14784       1818.000    
   54.18126       1647.000    
   54.21469       1564.000    
   54.24811       1474.000    
   54.28153       1326.000    
   54.31495       1337.000    
   54.34838       1209.000    
   54.38180       1226.000    
   54.41522       1101.000    
   54.44864       1138.000    
   54.48207       1077.000    
   54.51549       1041.000    
   54.54891       1043.000    
   54.58234       973.0000    
   54.61576       930.0000    
   54.64918       957.0000    
   54.68260       870.0000    
   54.71603       869.0000    
   54.74945       859.0000    
   54.78287       841.0000    
   54.81629       795.0000    
   54.84972       890.0000    
   54.88314       865.0000    
   54.91656       802.0000    
   54.94998       793.0000    
   54.98341       858.0000    
   55.01683       824.0000    
   55.05025       748.0000    
   55.08367       711.0000    
   55.11710       757.0000    
   55.15052       791.0000    
   55.18394       721.0000    
   55.21736       765.0000    
   55.25079       713.0000    
   55.28421       731.0000    
   55.31763       718.0000    
   55.35105       723.0000    
   55.38448       643.0000    
   55.41790       644.0000    
   55.45132       634.0000    
   55.48475       692.0000    
   55.51817       651.0000    
   55.55159       690.0000    
   55.58501       622.0000    
   55.61843       622.0000    
   55.65186       651.0000    
   55.68528       650.0000    
   55.71870       684.0000    
   55.75212       648.0000    
   55.78555       656.0000    
   55.81897       610.0000    
   55.85239       630.0000    
   55.88581       629.0000    
   55.91924       620.0000    
   55.95266       597.0000    
   55.98608       618.0000    
   56.01950       608.0000    
   56.05293       552.0000    
   56.08635       630.0000    
   56.11977       633.0000    
   56.15319       608.0000    
   56.18661       579.0000    
   56.22004       575.0000    
   56.25346       604.0000    
   56.28688       612.0000    
   56.32030       607.0000    
   56.35373       632.0000    
   56.38715       673.0000    
   56.42057       633.0000    
   56.45400       606.0000    
   56.48742       553.0000    
   56.52084       567.0000    
   56.55426       587.0000    
   56.58769       557.0000    
   56.62111       611.0000    
   56.65453       573.0000    
   56.68795       595.0000    
   56.72138       598.0000    
   56.75480       562.0000    
   56.78822       594.0000    
   56.82164       559.0000    
   56.85507       624.0000    
   56.88849       603.0000    
   56.92191       575.0000    
   56.95533       567.0000    
   56.98876       586.0000    
   57.02218       549.0000    
   57.05560       557.0000    
   57.08902       585.0000    
   57.12245       532.0000    
   57.15587       573.0000    
   57.18929       609.0000    
   57.22271       584.0000    
   57.25614       635.0000    
   57.28956       572.0000    
   57.32298       569.0000    
   57.35641       618.0000    
   57.38983       550.0000    
   57.42325       598.0000    
   57.45667       588.0000    
   57.49010       575.0000    
   57.52352       601.0000    
   57.55694       562.0000    
   57.59036       552.0000    
   57.62379       582.0000    
   57.65721       554.0000    
   57.69063       549.0000    
   57.72405       537.0000    
   57.75748       555.0000    
   57.79090       570.0000    
   57.82432       568.0000    
   57.85774       548.0000    
   57.89117       594.0000    
   57.92459       593.0000    
   57.95801       551.0000    
   57.99143       553.0000    
   58.02486       510.0000    
   58.05828       567.0000    
   58.09170       526.0000    
   58.12512       509.0000    
   58.15855       516.0000    
   58.19197       528.0000    
   58.22539       545.0000    
   58.25882       549.0000    
   58.29224       581.0000    
   58.32566       537.0000    
   58.35908       582.0000    
   58.39251       582.0000    
   58.42593       546.0000    
   58.45935       554.0000    
   58.49277       535.0000    
   58.52620       505.0000    
   58.55962       541.0000    
   58.59304       547.0000    
   58.62646       568.0000    
   58.65989       513.0000    
   58.69331       545.0000    
   58.72673       520.0000    
   58.76015       477.0000    
   58.79358       533.0000    
   58.82700       503.0000    
   58.86042       541.0000    
   58.89384       530.0000    
   58.92727       566.0000    
   58.96069       531.0000    
   58.99411       535.0000    
   59.02753       538.0000    
   59.06096       550.0000    
   59.09438       469.0000    
   59.12780       570.0000    
   59.16122       507.0000    
   59.19464       580.0000    
   59.22807       549.0000    
   59.26149       522.0000    
   59.29491       524.0000    
   59.32833       548.0000    
   59.36176       591.0000    
   59.39518       512.0000    
   59.42860       559.0000    
   59.46202       531.0000    
   59.49545       523.0000    
   59.52887       521.0000    
   59.56229       508.0000    
   59.59571       508.0000    
   59.62914       521.0000    
   59.66256       529.0000    
   59.69598       557.0000    
   59.72940       551.0000    
   59.76283       499.0000    
   59.79625       538.0000    
   59.82967       497.0000    
   59.86309       504.0000    
   59.89652       548.0000    
   59.92994       515.0000    
   59.96336       547.0000    
   59.99678       563.0000    
   60.03021       520.0000    
   60.06363       532.0000    
   60.09705       518.0000    
   60.13047       532.0000    
   60.16390       552.0000    
   60.19732       496.0000    
   60.23074       489.0000    
   60.26417       508.0000    
   60.29759       499.0000    
   60.33101       549.0000    
   60.36443       547.0000    
   60.39786       526.0000    
   60.43128       564.0000    
   60.46470       504.0000    
   60.49812       514.0000    
   60.53155       536.0000    
   60.56497       547.0000    
   60.59839       552.0000    
   60.63181       561.0000    
   60.66524       507.0000    
   60.69866       511.0000    
   60.73208       480.0000    
   60.76550       461.0000    
   60.79893       520.0000    
   60.83235       479.0000    
   60.86577       541.0000    
   60.89919       512.0000    
   60.93262       563.0000    
   60.96604       525.0000    
   60.99946       514.0000    
   61.03288       484.0000    
   61.06631       475.0000    
   61.09973       513.0000    
   61.13315       534.0000    
   61.16658       555.0000    
   61.20000       529.0000    
   61.23342       533.0000    
   61.26684       492.0000    
   61.30027       522.0000    
   61.33369       497.0000    
   61.36711       500.0000    
   61.40053       497.0000    
   61.43396       508.0000    
   61.46738       529.0000    
   61.50080       548.0000    
   61.53422       502.0000    
   61.56765       547.0000    
   61.60107       515.0000    
   61.63449       540.0000    
   61.66791       507.0000    
   61.70134       551.0000    
   61.73476       538.0000    
   61.76818       512.0000    
   61.80160       504.0000    
   61.83503       487.0000    
   61.86845       507.0000    
   61.90187       493.0000    
   61.93529       537.0000    
   61.96872       481.0000    
   62.00214       508.0000    
   62.03556       536.0000    
   62.06898       502.0000    
   62.10241       457.0000    
   62.13583       530.0000    
   62.16925       496.0000    
   62.20267       509.0000    
   62.23610       528.0000    
   62.26952       538.0000    
   62.30294       538.0000    
   62.33636       518.0000    
   62.36979       527.0000    
   62.40321       492.0000    
   62.43663       447.0000    
   62.47005       508.0000    
   62.50348       471.0000    
   62.53690       514.0000    
   62.57032       478.0000    
   62.60374       521.0000    
   62.63717       469.0000    
   62.67059       505.0000    
   62.70401       515.0000    
   62.73743       454.0000    
   62.77085       499.0000    
   62.80428       497.0000    
   62.83770       506.0000    
   62.87112       511.0000    
   62.90454       521.0000    
   62.93797       484.0000    
   62.97139       556.0000    
   63.00481       499.0000    
   63.03824       488.0000    
   63.07166       505.0000    
   63.10508       518.0000    
   63.13850       521.0000    
   63.17193       527.0000    
   63.20535       532.0000    
   63.23877       497.0000    
   63.27219       512.0000    
   63.30562       479.0000    
   63.33904       512.0000    
   63.37246       486.0000    
   63.40588       527.0000    
   63.43931       477.0000    
   63.47273       535.0000    
   63.50615       479.0000    
   63.53957       478.0000    
   63.57300       509.0000    
   63.60642       532.0000    
   63.63984       518.0000    
   63.67326       501.0000    
   63.70669       555.0000    
   63.74011       511.0000    
   63.77353       500.0000    
   63.80695       522.0000    
   63.84038       477.0000    
   63.87380       562.0000    
   63.90722       552.0000    
   63.94064       537.0000    
   63.97407       553.0000    
   64.00749       485.0000    
   64.04091       556.0000    
   64.07433       548.0000    
   64.10776       465.0000    
   64.14118       566.0000    
   64.17460       507.0000    
   64.20802       512.0000    
   64.24145       518.0000    
   64.27487       537.0000    
   64.30829       537.0000    
   64.34171       535.0000    
   64.37514       547.0000    
   64.40856       535.0000    
   64.44198       554.0000    
   64.47540       518.0000    
   64.50883       510.0000    
   64.54225       523.0000    
   64.57567       533.0000    
   64.60909       527.0000    
   64.64252       532.0000    
   64.67594       547.0000    
   64.70936       514.0000    
   64.74278       527.0000    
   64.77621       552.0000    
   64.80963       565.0000    
   64.84305       575.0000    
   64.87647       557.0000    
   64.90990       547.0000    
   64.94332       581.0000    
   64.97675       558.0000    
   65.01016       577.0000    
   65.04359       602.0000    
   65.07701       554.0000    
   65.11044       648.0000    
   65.14385       605.0000    
   65.17728       621.0000    
   65.21070       598.0000    
   65.24413       622.0000    
   65.27754       624.0000    
   65.31097       635.0000    
   65.34439       638.0000    
   65.37782       668.0000    
   65.41123       665.0000    
   65.44466       748.0000    
   65.47808       679.0000    
   65.51151       704.0000    
   65.54492       745.0000    
   65.57835       769.0000    
   65.61177       830.0000    
   65.64520       822.0000    
   65.67861       870.0000    
   65.71204       964.0000    
   65.74546       923.0000    
   65.77888       971.0000    
   65.81230       985.0000    
   65.84573       1018.000    
   65.87915       1032.000    
   65.91257       1129.000    
   65.94600       1121.000    
   65.97942       1221.000    
   66.01284       1184.000    
   66.04626       1349.000    
   66.07969       1398.000    
   66.11311       1412.000    
   66.14653       1496.000    
   66.17995       1515.000    
   66.21338       1485.000    
   66.24680       1642.000    
   66.28022       1780.000    
   66.31364       1655.000    
   66.34707       1795.000    
   66.38049       1909.000    
   66.41391       1821.000    
   66.44733       1855.000    
   66.48076       1822.000    
   66.51418       1953.000    
   66.54760       1918.000    
   66.58102       1957.000    
   66.61445       1908.000    
   66.64787       1833.000    
   66.68129       1930.000    
   66.71471       1865.000    
   66.74814       2027.000    
   66.78156       1843.000    
   66.81498       1814.000    
   66.84840       1722.000    
   66.88183       1705.000    
   66.91525       1690.000    
   66.94867       1614.000    
   66.98209       1562.000    
   67.01552       1528.000    
   67.04894       1365.000    
   67.08236       1316.000    
   67.11578       1303.000    
   67.14921       1200.000    
   67.18263       1216.000    
   67.21605       1167.000    
   67.24947       1156.000    
   67.28290       1079.000    
   67.31632       999.0000    
   67.34974       938.0000    
   67.38316       952.0000    
   67.41659       892.0000    
   67.45001       851.0000    
   67.48343       858.0000    
   67.51685       819.0000    
   67.55028       790.0000    
   67.58370       723.0000    
   67.61712       756.0000    
   67.65054       711.0000    
   67.68397       703.0000    
   67.71739       746.0000    
   67.75081       677.0000    
   67.78423       649.0000    
   67.81766       692.0000    
   67.85108       652.0000    
   67.88451       659.0000    
   67.91792       627.0000    
   67.95135       607.0000    
   67.98477       612.0000    
   68.01820       655.0000    
   68.05161       568.0000    
   68.08504       567.0000    
   68.11846       608.0000    
   68.15189       574.0000    
   68.18530       556.0000    
   68.21873       555.0000    
   68.25215       630.0000    
   68.28558       594.0000    
   68.31899       546.0000    
   68.35242       559.0000    
   68.38584       565.0000    
   68.41927       513.0000    
   68.45268       570.0000    
   68.48611       533.0000    
   68.51953       554.0000    
   68.55296       542.0000    
   68.58637       529.0000    
   68.61980       536.0000    
   68.65322       524.0000    
   68.68665       520.0000    
   68.72007       576.0000    
   68.75349       474.0000    
   68.78691       518.0000    
   68.82034       513.0000    
   68.85376       530.0000    
   68.88718       552.0000    
   68.92060       523.0000    
   68.95403       504.0000    
   68.98745       547.0000    
   69.02087       523.0000    
   69.05429       540.0000    
   69.08772       466.0000    
   69.12113       510.0000    
   69.15456       487.0000    
   69.18798       508.0000    
   69.22141       534.0000    
   69.25482       472.0000    
   69.28825       489.0000    
   69.32167       478.0000    
   69.35509       532.0000    
   69.38851       522.0000    
   69.42194       515.0000    
   69.45536       491.0000    
   69.48878       535.0000    
   69.52220       470.0000    
   69.55563       495.0000    
   69.58905       535.0000    
   69.62247       454.0000    
   69.65589       543.0000    
   69.68932       512.0000    
   69.72274       475.0000    
   69.75616       520.0000    
   69.78959       468.0000    
   69.82301       478.0000    
   69.85643       528.0000    
   69.88985       438.0000    
   69.92328       451.0000    
   69.95670       516.0000    
